theta,intensity
5.04000,4526.247
5.08000,4571.421
5.12000,4534.819
5.16000,4503.083
5.20000,4563.610
5.24000,4521.715
5.28000,4504.755
5.32000,4534.703
5.36000,4604.418
5.40000,4492.529
5.44000,4468.189
5.48000,4368.454
5.52000,4397.270
5.56000,4386.408
5.60000,4365.427
5.64000,4339.804
5.68000,4372.911
5.72000,4302.338
5.76000,4496.603
5.80000,4240.283
5.84000,4265.587
5.88000,4171.448
5.92000,4147.283
5.96000,4165.708
6.00000,4150.803
6.04000,4081.257
6.08000,4158.843
6.12000,3923.303
6.16000,3989.742
6.20000,4032.074
6.24000,3989.833
6.28000,3999.198
6.32000,3976.200
6.36000,3959.119
6.40000,3936.092
6.44000,3940.835
6.48000,3823.189
6.52000,3895.242
6.56000,3812.695
6.60000,3856.398
6.64000,3785.866
6.68000,3838.598
6.72000,3847.757
6.76000,3809.801
6.80000,3865.913
6.84000,3874.082
6.88000,3867.643
6.92000,3818.579
6.96000,3795.820
7.00000,4008.884
7.04000,3787.844
7.08000,3787.827
7.12000,3742.178
7.16000,3830.724
7.20000,3847.462
7.24000,3820.691
7.28000,3800.750
7.32000,3785.463
7.36000,3779.437
7.40000,3783.057
7.44000,3741.028
7.48000,3714.534
7.52000,3780.111
7.56000,3789.247
7.60000,3910.154
7.64000,3794.873
7.68000,3767.389
7.72000,3672.146
7.76000,3734.619
7.80000,3744.812
7.84000,3638.495
7.88000,3691.037
7.92000,3670.110
7.96000,3674.269
8.00000,3724.020
8.04000,3696.119
8.08000,3632.898
8.12000,3626.139
8.16000,3663.532
8.20000,3721.763
8.24000,3710.329
8.28000,3646.430
8.32000,3640.703
8.36000,3582.462
8.40000,3637.909
8.44000,3523.757
8.48000,3737.516
8.52000,3730.014
8.56000,3584.369
8.60000,3711.053
8.64000,3652.075
8.68000,3640.714
8.72000,3705.713
8.76000,3638.608
8.80000,3541.217
8.84000,3672.620
8.88000,3621.851
8.92000,3654.789
8.96000,3637.171
9.00000,3611.816
9.04000,3470.027
9.08000,3612.667
9.12000,3527.692
9.16000,3470.094
9.20000,3520.562
9.24000,3627.203
9.28000,3580.846
9.32000,3481.446
9.36000,3539.638
9.40000,3596.298
9.44000,3591.743
9.48000,3421.291
9.52000,3585.996
9.56000,3480.601
9.60000,3527.760
9.64000,3611.748
9.68000,3525.351
9.72000,3480.753
9.76000,3493.007
9.80000,3502.957
9.84000,3453.021
9.88000,3465.328
9.92000,3541.543
9.96000,3461.899
10.00000,3589.602
10.04000,3494.308
10.08000,3467.128
10.12000,3543.906
10.16000,3448.602
10.20000,3401.578
10.24000,3474.069
10.28000,3423.912
10.32000,3441.715
10.36000,3511.541
10.40000,3524.159
10.44000,3501.274
10.48000,3438.215
10.52000,3478.279
10.56000,3378.637
10.60000,3413.264
10.64000,3388.326
10.68000,3449.421
10.72000,3450.074
10.76000,3520.773
10.80000,3446.718
10.84000,3367.914
10.88000,3354.435
10.92000,3448.427
10.96000,3295.456
11.00000,3408.885
11.04000,3286.558
11.08000,3261.392
11.12000,3386.194
11.16000,3439.829
11.20000,3476.729
11.24000,3331.728
11.28000,3316.926
11.32000,3388.349
11.36000,3481.689
11.40000,3427.026
11.44000,3335.909
11.48000,3404.874
11.52000,3380.147
11.56000,3283.229
11.60000,3354.168
11.64000,3425.212
11.68000,3404.461
11.72000,3272.127
11.76000,3307.200
11.80000,3324.863
11.84000,3185.871
11.88000,3330.689
11.92000,3238.518
11.96000,3373.943
12.00000,3258.633
12.04000,3372.046
12.08000,3338.587
12.12000,3271.756
12.16000,3305.652
12.20000,3264.207
12.24000,3283.038
12.28000,3283.634
12.32000,3321.761
12.36000,3257.934
12.40000,3271.795
12.44000,3282.791
12.48000,3165.555
12.52000,3184.060
12.56000,3225.736
12.60000,3272.213
12.64000,3240.854
12.68000,3220.451
12.72000,3295.481
12.76000,3208.371
12.80000,3287.613
12.84000,3336.290
12.88000,3259.424
12.92000,3171.177
12.96000,3286.545
13.00000,3297.126
13.04000,3174.081
13.08000,3181.181
13.12000,3245.932
13.16000,3212.779
13.20000,3204.813
13.24000,3211.181
13.28000,3160.692
13.32000,3174.778
13.36000,3151.936
13.40000,3271.758
13.44000,3168.123
13.48000,3190.450
13.52000,3138.209
13.56000,3153.569
13.60000,3150.940
13.64000,3183.706
13.68000,3078.607
13.72000,3132.523
13.76000,3197.215
13.80000,3171.297
13.84000,3135.615
13.88000,3130.339
13.92000,3118.069
13.96000,3212.152
14.00000,3102.649
14.04000,3169.961
14.08000,3012.109
14.12000,3069.023
14.16000,3107.536
14.20000,3173.805
14.24000,3078.115
14.28000,3128.372
14.32000,3077.815
14.36000,3223.529
14.40000,3114.773
14.44000,3085.382
14.48000,3073.152
14.52000,3144.633
14.56000,3117.930
14.60000,3146.284
14.64000,3135.588
14.68000,3080.505
14.72000,3173.424
14.76000,3033.345
14.80000,3017.257
14.84000,2979.317
14.88000,2965.867
14.92000,3022.579
14.96000,2965.659
15.00000,3153.958
15.04000,3055.413
15.08000,3001.948
15.12000,2951.282
15.16000,2957.136
15.20000,3041.561
15.24000,2984.638
15.28000,2954.021
15.32000,3094.032
15.36000,3019.835
15.40000,3001.025
15.44000,3044.559
15.48000,2841.084
15.52000,3038.294
15.56000,3004.657
15.60000,2926.714
15.64000,2992.930
15.68000,3019.436
15.72000,2923.971
15.76000,2967.153
15.80000,2910.810
15.84000,2975.533
15.88000,2991.601
15.92000,2991.091
15.96000,2953.854
16.00000,2992.266
16.04000,2967.504
16.08000,2891.007
16.12000,3085.323
16.16000,2906.260
16.20000,2953.469
16.24000,3029.270
16.28000,2967.377
16.32000,2920.368
16.36000,2915.917
16.40000,2848.943
16.44000,2899.219
16.48000,2999.855
16.52000,2973.471
16.56000,2904.818
16.60000,2907.602
16.64000,2831.557
16.68000,2850.520
16.72000,2877.618
16.76000,2908.174
16.80000,2847.942
16.84000,2937.381
16.88000,2765.037
16.92000,2884.963
16.96000,2919.978
17.00000,2905.608
17.04000,2912.840
17.08000,2848.983
17.12000,2813.999
17.16000,2864.727
17.20000,2717.635
17.24000,2828.736
17.28000,2820.599
17.32000,2860.371
17.36000,2863.199
17.40000,2866.617
17.44000,2887.748
17.48000,2875.292
17.52000,2791.247
17.56000,2765.369
17.60000,2787.389
17.64000,2814.771
17.68000,2791.284
17.72000,2741.356
17.76000,2757.894
17.80000,2764.170
17.84000,2772.727
17.88000,2785.252
17.92000,2803.410
17.96000,2815.182
18.00000,2851.563
18.04000,2689.401
18.08000,2824.092
18.12000,2771.472
18.16000,2853.849
18.20000,2754.114
18.24000,2793.662
18.28000,2770.304
18.32000,2820.091
18.36000,2727.955
18.40000,2709.423
18.44000,2706.247
18.48000,2701.825
18.52000,2731.459
18.56000,2773.168
18.60000,2726.867
18.64000,2722.274
18.68000,2761.690
18.72000,2755.896
18.76000,2752.382
18.80000,2668.244
18.84000,2736.002
18.88000,2739.555
18.92000,2757.770
18.96000,2665.326
19.00000,2747.481
19.04000,2693.976
19.08000,2661.671
19.12000,2696.899
19.16000,2678.742
19.20000,2690.543
19.24000,2679.213
19.28000,2631.349
19.32000,2667.092
19.36000,2715.681
19.40000,2591.917
19.44000,2630.522
19.48000,2704.933
19.52000,2583.693
19.56000,2625.944
19.60000,2658.592
19.64000,2673.892
19.68000,2612.556
19.72000,2544.472
19.76000,2511.689
19.80000,2613.049
19.84000,2611.978
19.88000,2650.905
19.92000,2624.296
19.96000,2669.563
20.00000,2553.473
20.04000,2579.006
20.08000,2566.875
20.12000,2624.661
20.16000,2615.248
20.20000,2545.914
20.24000,2463.143
20.28000,2564.229
20.32000,2569.707
20.36000,2595.533
20.40000,2624.731
20.44000,2504.174
20.48000,2538.987
20.52000,2610.518
20.56000,2538.967
20.60000,2489.273
20.64000,2595.149
20.68000,2557.285
20.72000,2505.989
20.76000,2576.275
20.80000,2550.390
20.84000,2538.959
20.88000,2485.469
20.92000,2480.429
20.96000,2560.879
21.00000,2454.447
21.04000,2511.979
21.08000,2449.720
21.12000,2393.385
21.16000,2466.227
21.20000,2488.086
21.24000,2504.617
21.28000,2436.038
21.32000,2518.776
21.36000,2431.123
21.40000,2523.675
21.44000,2471.298
21.48000,2397.680
21.52000,2509.651
21.56000,2495.474
21.60000,2500.671
21.64000,2482.437
21.68000,2329.811
21.72000,2374.346
21.76000,2355.009
21.80000,2451.397
21.84000,2393.991
21.88000,2401.352
21.92000,2459.871
21.96000,2454.639
22.00000,2445.935
22.04000,2461.515
22.08000,2409.536
22.12000,2358.977
22.16000,2442.126
22.20000,2412.591
22.24000,2444.506
22.28000,2378.299
22.32000,2450.057
22.36000,2409.186
22.40000,2414.170
22.44000,2451.357
22.48000,2381.220
22.52000,2328.383
22.56000,2382.664
22.60000,2453.175
22.64000,2398.041
22.68000,2377.313
22.72000,2366.430
22.76000,2327.287
22.80000,2339.648
22.84000,2411.634
22.88000,2297.116
22.92000,2383.658
22.96000,2386.950
23.00000,2335.931
23.04000,2408.364
23.08000,2319.223
23.12000,2330.836
23.16000,2339.070
23.20000,2344.534
23.24000,2392.288
23.28000,2323.106
23.32000,2319.928
23.36000,2291.852
23.40000,2266.666
23.44000,2282.987
23.48000,2347.510
23.52000,2296.451
23.56000,2320.687
23.60000,2217.022
23.64000,2235.758
23.68000,2302.531
23.72000,2268.307
23.76000,2286.924
23.80000,2200.083
23.84000,2273.119
23.88000,2352.183
23.92000,2314.946
23.96000,2193.699
24.00000,2230.664
24.04000,2212.813
24.08000,2203.710
24.12000,2274.848
24.16000,2186.007
24.20000,2225.765
24.24000,2243.906
24.28000,2173.972
24.32000,2225.161
24.36000,2222.313
24.40000,2234.499
24.44000,2171.852
24.48000,2251.302
24.52000,2233.398
24.56000,2181.320
24.60000,2219.652
24.64000,2272.925
24.68000,2167.428
24.72000,2227.712
24.76000,2180.771
24.80000,2264.156
24.84000,2225.502
24.88000,2191.990
24.92000,2184.520
24.96000,2194.022
25.00000,2164.016
25.04000,2151.765
25.08000,2152.750
25.12000,2085.786
25.16000,2049.544
25.20000,2181.252
25.24000,2216.339
25.28000,2226.649
25.32000,2159.613
25.36000,2132.676
25.40000,2162.102
25.44000,2146.464
25.48000,2124.913
25.52000,2091.063
25.56000,2190.445
25.60000,2191.540
25.64000,2166.429
25.68000,2233.206
25.72000,2187.180
25.76000,2126.732
25.80000,2009.155
25.84000,2106.283
25.88000,2070.836
25.92000,2017.477
25.96000,2063.830
26.00000,2075.074
26.04000,2086.310
26.08000,2039.111
26.12000,2113.327
26.16000,2115.726
26.20000,2021.912
26.24000,1924.189
26.28000,2012.247
26.32000,2114.239
26.36000,2075.138
26.40000,2029.195
26.44000,2171.036
26.48000,2049.697
26.52000,2023.869
26.56000,2017.244
26.60000,2076.260
26.64000,1973.291
26.68000,2110.325
26.72000,2004.143
26.76000,1972.109
26.80000,2053.918
26.84000,2081.185
26.88000,2055.676
26.92000,1950.247
26.96000,2009.521
27.00000,2022.014
27.04000,1973.644
27.08000,1962.366
27.12000,2053.057
27.16000,2071.611
27.20000,1996.603
27.24000,1989.667
27.28000,2028.394
27.32000,1936.595
27.36000,1986.036
27.40000,1922.654
27.44000,1982.697
27.48000,1964.571
27.52000,2014.372
27.56000,1937.026
27.60000,1934.637
27.64000,1959.354
27.68000,1887.461
27.72000,1859.538
27.76000,1926.908
27.80000,2011.117
27.84000,1869.795
27.88000,1944.434
27.92000,1964.328
27.96000,1940.293
28.00000,1907.430
28.04000,1912.076
28.08000,2004.939
28.12000,1874.012
28.16000,1830.884
28.20000,1882.939
28.24000,1866.316
28.28000,1867.553
28.32000,1897.658
28.36000,1886.672
28.40000,1906.874
28.44000,1850.866
28.48000,1892.304
28.52000,1881.063
28.56000,1858.206
28.60000,1871.512
28.64000,1943.070
28.68000,1846.916
28.72000,1842.893
28.76000,1868.559
28.80000,1834.046
28.84000,1828.672
28.88000,1934.822
28.92000,1851.035
28.96000,1798.905
29.00000,1852.261
29.04000,1900.078
29.08000,1877.653
29.12000,1816.356
29.16000,1805.740
29.20000,1810.466
29.24000,1854.869
29.28000,1865.996
29.32000,1811.522
29.36000,1757.950
29.40000,1787.642
29.44000,1829.977
29.48000,1836.094
29.52000,1884.015
29.56000,1809.176
29.60000,1836.204
29.64000,1815.971
29.68000,1881.324
29.72000,1849.688
29.76000,1920.390
29.80000,1865.035
29.84000,1868.440
29.88000,1841.473
29.92000,1885.790
29.96000,1921.007
30.00000,1841.306
30.04000,1782.122
30.08000,1766.817
30.12000,1795.277
30.16000,1778.451
30.20000,1821.326
30.24000,1737.494
30.28000,1696.564
30.32000,1706.400
30.36000,1688.222
30.40000,1703.138
30.44000,1695.770
30.48000,1766.201
30.52000,1705.858
30.56000,1682.188
30.60000,1726.716
30.64000,1734.460
30.68000,1733.496
30.72000,1645.998
30.76000,1728.441
30.80000,1681.115
30.84000,1739.058
30.88000,1654.649
30.92000,1773.769
30.96000,1633.482
31.00000,1664.079
31.04000,1781.764
31.08000,1656.330
31.12000,1678.283
31.16000,1607.196
31.20000,1693.381
31.24000,1718.772
31.28000,1732.216
31.32000,1758.709
31.36000,1688.361
31.40000,1678.064
31.44000,1689.782
31.48000,1731.226
31.52000,1671.594
31.56000,1697.918
31.60000,1687.370
31.64000,1630.701
31.68000,1622.649
31.72000,1640.079
31.76000,1670.706
31.80000,1660.185
31.84000,1732.039
31.88000,1653.632
31.92000,1604.705
31.96000,1711.635
32.00000,1611.027
32.04000,1543.333
32.08000,1517.531
32.12000,1574.850
32.16000,1640.539
32.20000,1633.818
32.24000,1591.001
32.28000,1651.379
32.32000,1650.721
32.36000,1638.991
32.40000,1558.921
32.44000,1581.086
32.48000,1568.289
32.52000,1569.876
32.56000,1629.697
32.60000,1587.699
32.64000,1499.493
32.68000,1606.277
32.72000,1669.059
32.76000,1562.950
32.80000,1587.401
32.84000,1586.095
32.88000,1552.411
32.92000,1622.945
32.96000,1589.386
33.00000,1557.420
33.04000,1540.449
33.08000,1519.645
33.12000,1495.841
33.16000,1515.896
33.20000,1522.914
33.24000,1530.843
33.28000,1556.917
33.32000,1520.918
33.36000,1532.703
33.40000,1537.335
33.44000,1490.132
33.48000,1546.833
33.52000,1524.378
33.56000,1540.715
33.60000,1563.445
33.64000,1497.094
33.68000,1479.110
33.72000,1554.268
33.76000,1544.913
33.80000,1494.548
33.84000,1520.088
33.88000,1448.641
33.92000,1515.008
33.96000,1490.879
34.00000,1481.610
34.04000,1500.464
34.08000,1512.556
34.12000,1505.640
34.16000,1480.070
34.20000,1439.153
34.24000,1471.429
34.28000,1522.246
34.32000,1519.581
34.36000,1473.924
34.40000,1416.534
34.44000,1496.517
34.48000,1462.600
34.52000,1451.413
34.56000,1412.180
34.60000,1440.128
34.64000,1414.976
34.68000,1510.126
34.72000,1470.636
34.76000,1480.295
34.80000,1499.128
34.84000,1440.711
34.88000,1443.326
34.92000,1430.007
34.96000,1479.125
35.00000,1421.818
35.04000,1438.617
35.08000,1419.463
35.12000,1441.461
35.16000,1450.743
35.20000,1459.795
35.24000,1403.238
35.28000,1375.480
35.32000,1362.313
35.36000,1373.080
35.40000,1323.909
35.44000,1388.868
35.48000,1412.068
35.52000,1431.631
35.56000,1383.138
35.60000,1420.544
35.64000,1364.278
35.68000,1396.277
35.72000,1378.526
35.76000,1346.545
35.80000,1377.795
35.84000,1379.686
35.88000,1378.046
35.92000,1379.650
35.96000,1381.286
36.00000,1445.464
36.04000,1384.955
36.08000,1364.041
36.12000,1366.721
36.16000,1351.548
36.20000,1344.456
36.24000,1398.259
36.28000,1350.580
36.32000,1345.548
36.36000,1373.720
36.40000,1412.824
36.44000,1349.788
36.48000,1311.088
36.52000,1333.859
36.56000,1323.728
36.60000,1422.929
36.64000,1337.858
36.68000,1269.394
36.72000,1305.884
36.76000,1372.010
36.80000,1307.415
36.84000,1342.677
36.88000,1408.070
36.92000,1329.684
36.96000,1270.453
37.00000,1288.252
37.04000,1278.090
37.08000,1307.266
37.12000,1325.716
37.16000,1230.392
37.20000,1254.953
37.24000,1305.570
37.28000,1263.045
37.32000,1297.029
37.36000,1279.219
37.40000,1278.184
37.44000,1271.485
37.48000,1249.501
37.52000,1310.019
37.56000,1219.956
37.60000,1285.913
37.64000,1326.817
37.68000,1281.544
37.72000,1297.928
37.76000,1254.503
37.80000,1307.320
37.84000,1252.296
37.88000,1248.789
37.92000,1309.669
37.96000,1313.593
38.00000,1282.430
38.04000,1263.458
38.08000,1276.407
38.12000,1269.123
38.16000,1251.349
38.20000,1315.046
38.24000,1263.861
38.28000,1309.179
38.32000,1304.174
38.36000,1324.057
38.40000,1280.626
38.44000,1297.992
38.48000,1340.427
38.52000,1249.490
38.56000,1224.460
38.60000,1287.167
38.64000,1263.965
38.68000,1228.327
38.72000,1264.482
38.76000,1211.571
38.80000,1249.838
38.84000,1257.144
38.88000,1288.746
38.92000,1282.528
38.96000,1258.400
39.00000,1235.345
39.04000,1231.050
39.08000,1212.386
39.12000,1299.763
39.16000,1234.815
39.20000,1264.344
39.24000,1303.191
39.28000,1273.405
39.32000,1316.410
39.36000,1322.811
39.40000,1387.059
39.44000,1340.826
39.48000,1301.990
39.52000,1313.955
39.56000,1428.839
39.60000,1336.593
39.64000,1347.197
39.68000,1436.774
39.72000,1438.031
39.76000,1498.986
39.80000,1542.745
39.84000,1493.761
39.88000,1567.037
39.92000,1618.479
39.96000,1725.787
40.00000,1804.736
40.04000,1823.514
40.08000,1989.936
40.12000,2017.432
40.16000,2079.127
40.20000,2133.008
40.24000,2117.016
40.28000,2084.276
40.32000,1966.023
40.36000,1880.109
40.40000,1753.674
40.44000,1643.521
40.48000,1679.326
40.52000,1555.707
40.56000,1510.466
40.60000,1478.574
40.64000,1492.052
40.68000,1384.341
40.72000,1429.416
40.76000,1408.000
40.80000,1292.469
40.84000,1356.058
40.88000,1289.544
40.92000,1296.954
40.96000,1289.318
41.00000,1281.513
41.04000,1222.634
41.08000,1216.446
41.12000,1240.996
41.16000,1232.437
41.20000,1224.669
41.24000,1165.653
41.28000,1112.070
41.32000,1174.926
41.36000,1129.290
41.40000,1127.374
41.44000,1121.535
41.48000,1202.840
41.52000,1172.118
41.56000,1126.460
41.60000,1193.909
41.64000,1133.541
41.68000,1137.922
41.72000,1067.083
41.76000,1133.380
41.80000,1104.848
41.84000,1073.135
41.88000,1071.625
41.92000,1104.335
41.96000,1127.152
42.00000,1082.990
42.04000,1100.149
42.08000,1098.851
42.12000,1072.753
42.16000,1099.380
42.20000,1103.917
42.24000,1091.654
42.28000,1103.637
42.32000,1099.508
42.36000,1162.372
42.40000,1193.967
42.44000,1287.531
42.48000,1321.210
42.52000,1428.433
42.56000,1507.496
42.60000,1592.922
42.64000,1687.839
42.68000,1751.080
42.72000,1627.960
42.76000,1579.409
42.80000,1510.518
42.84000,1414.814
42.88000,1313.438
42.92000,1236.741
42.96000,1204.459
43.00000,1157.400
43.04000,1159.698
43.08000,1134.600
43.12000,1036.694
43.16000,1033.471
43.20000,1015.752
43.24000,1057.560
43.28000,985.027
43.32000,1034.349
43.36000,986.491
43.40000,971.421
43.44000,1052.841
43.48000,1045.005
43.52000,990.170
43.56000,1003.344
43.60000,969.471
43.64000,1020.261
43.68000,998.195
43.72000,1006.166
43.76000,975.626
43.80000,1012.702
43.84000,1043.107
43.88000,1016.148
43.92000,994.613
43.96000,1006.922
44.00000,996.089
44.04000,975.991
44.08000,1031.945
44.12000,986.340
44.16000,988.696
44.20000,1036.160
44.24000,1007.891
44.28000,969.572
44.32000,964.301
44.36000,959.525
44.40000,923.287
44.44000,989.115
44.48000,1003.565
44.52000,976.771
44.56000,1013.980
44.60000,992.808
44.64000,957.820
44.68000,971.527
44.72000,976.360
44.76000,918.213
44.80000,916.700
44.84000,1014.635
44.88000,967.164
44.92000,896.227
44.96000,912.929
45.00000,997.741
45.04000,946.726
45.08000,953.601
45.12000,906.485
45.16000,968.059
45.20000,967.688
45.24000,1008.544
45.28000,988.389
45.32000,959.661
45.36000,922.627
45.40000,948.426
45.44000,928.871
45.48000,1000.635
45.52000,982.867
45.56000,934.855
45.60000,972.499
45.64000,963.692
45.68000,955.703
45.72000,974.687
45.76000,942.484
45.80000,973.812
45.84000,990.521
45.88000,1049.848
45.92000,1027.184
45.96000,969.611
46.00000,1014.373
46.04000,981.938
46.08000,952.447
46.12000,982.824
46.16000,1015.221
46.20000,1031.194
46.24000,1044.202
46.28000,1008.643
46.32000,1079.809
46.36000,1105.166
46.40000,1053.638
46.44000,1097.935
46.48000,1109.044
46.52000,1160.954
46.56000,1104.418
46.60000,1131.444
46.64000,1092.535
46.68000,1134.959
46.72000,1176.135
46.76000,1144.199
46.80000,1139.713
46.84000,1158.699
46.88000,1200.317
46.92000,1091.229
46.96000,1067.066
47.00000,1040.860
47.04000,1074.228
47.08000,1085.658
47.12000,1004.412
47.16000,989.088
47.20000,963.048
47.24000,998.255
47.28000,1032.546
47.32000,961.572
47.36000,957.571
47.40000,938.259
47.44000,930.325
47.48000,903.245
47.52000,872.795
47.56000,872.773
47.60000,816.617
47.64000,889.560
47.68000,873.502
47.72000,843.331
47.76000,922.608
47.80000,823.590
47.84000,863.135
47.88000,830.179
47.92000,847.975
47.96000,812.353
48.00000,870.614
48.04000,850.489
48.08000,835.083
48.12000,838.271
48.16000,838.838
48.20000,829.971
48.24000,824.899
48.28000,812.375
48.32000,818.828
48.36000,801.240
48.40000,846.129
48.44000,805.081
48.48000,831.045
48.52000,743.729
48.56000,787.823
48.60000,773.095
48.64000,814.019
48.68000,794.499
48.72000,816.931
48.76000,799.295
48.80000,779.095
48.84000,791.638
48.88000,799.341
48.92000,745.785
48.96000,758.680
49.00000,832.927
49.04000,756.170
49.08000,817.386
49.12000,776.439
49.16000,742.880
49.20000,791.978
49.24000,815.957
49.28000,750.077
49.32000,788.699
49.36000,800.998
49.40000,811.956
49.44000,779.638
49.48000,774.063
49.52000,750.826
49.56000,793.859
49.60000,788.512
49.64000,752.408
49.68000,751.822
49.72000,782.294
49.76000,756.689
49.80000,817.538
49.84000,769.542
49.88000,781.681
49.92000,775.068
49.96000,741.995
50.00000,772.858
50.04000,777.198
50.08000,763.336
50.12000,758.934
50.16000,746.124
50.20000,788.168
50.24000,749.144
50.28000,736.540
50.32000,747.103
50.36000,751.477
50.40000,763.447
50.44000,718.662
50.48000,690.623
50.52000,783.873
50.56000,750.100
50.60000,778.513
50.64000,714.672
50.68000,763.468
50.72000,761.334
50.76000,763.503
50.80000,702.522
50.84000,711.855
50.88000,714.357
50.92000,767.063
50.96000,724.094
51.00000,704.194
51.04000,717.415
51.08000,783.324
51.12000,737.638
51.16000,716.087
51.20000,752.797
51.24000,688.576
51.28000,718.772
51.32000,696.201
51.36000,737.104
51.40000,764.714
51.44000,712.463
51.48000,707.999
51.52000,706.025
51.56000,658.643
51.60000,719.344
51.64000,767.415
51.68000,704.653
51.72000,665.355
51.76000,713.188
51.80000,729.080
51.84000,721.866
51.88000,733.699
51.92000,677.140
51.96000,711.035
52.00000,704.061
52.04000,712.178
52.08000,721.944
52.12000,682.177
52.16000,695.176
52.20000,690.547
52.24000,704.528
52.28000,714.116
52.32000,687.128
52.36000,725.945
52.40000,729.746
52.44000,701.027
52.48000,695.444
52.52000,693.100
52.56000,672.462
52.60000,688.038
52.64000,674.399
52.68000,701.037
52.72000,705.719
52.76000,678.060
52.80000,718.052
52.84000,720.368
52.88000,735.332
52.92000,681.912
52.96000,681.703
53.00000,656.463
53.04000,712.674
53.08000,671.903
53.12000,658.999
53.16000,684.403
53.20000,668.408
53.24000,661.420
53.28000,656.707
53.32000,702.380
53.36000,645.491
53.40000,642.243
53.44000,679.543
53.48000,697.456
53.52000,649.946
53.56000,665.133
53.60000,631.219
53.64000,672.169
53.68000,614.914
53.72000,666.656
53.76000,638.432
53.80000,661.044
53.84000,679.170
53.88000,669.832
53.92000,666.288
53.96000,681.840
54.00000,656.030
54.04000,665.765
54.08000,668.500
54.12000,661.352
54.16000,668.043
54.20000,645.214
54.24000,649.771
54.28000,638.548
54.32000,660.291
54.36000,637.238
54.40000,643.116
54.44000,653.973
54.48000,652.212
54.52000,657.467
54.56000,662.262
54.60000,658.545
54.64000,651.798
54.68000,644.069
54.72000,654.085
54.76000,686.566
54.80000,649.706
54.84000,694.695
54.88000,689.929
54.92000,618.295
54.96000,629.772
55.00000,586.136
55.04000,611.494
55.08000,642.542
55.12000,620.729
55.16000,634.262
55.20000,607.304
55.24000,658.963
55.28000,609.280
55.32000,615.721
55.36000,669.694
55.40000,616.146
55.44000,634.928
55.48000,616.091
55.52000,619.296
55.56000,605.298
55.60000,614.750
55.64000,602.403
55.68000,579.927
55.72000,610.724
55.76000,578.421
55.80000,624.635
55.84000,633.397
55.88000,599.603
55.92000,637.385
55.96000,617.209
56.00000,618.726
56.04000,604.809
56.08000,620.912
56.12000,639.704
56.16000,624.247
56.20000,594.904
56.24000,624.192
56.28000,612.163
56.32000,607.549
56.36000,618.376
56.40000,607.086
56.44000,623.645
56.48000,617.312
56.52000,616.373
56.56000,590.809
56.60000,602.911
56.64000,650.110
56.68000,605.601
56.72000,593.212
56.76000,591.004
56.80000,613.110
56.84000,624.835
56.88000,643.126
56.92000,610.210
56.96000,595.655
57.00000,607.723
57.04000,608.247
57.08000,619.808
57.12000,598.511
57.16000,615.189
57.20000,580.185
57.24000,586.161
57.28000,612.685
57.32000,623.021
57.36000,625.456
57.40000,619.025
57.44000,539.702
57.48000,637.403
57.52000,553.003
57.56000,592.757
57.60000,574.010
57.64000,548.772
57.68000,587.657
57.72000,548.108
57.76000,608.422
57.80000,578.500
57.84000,540.251
57.88000,642.992
57.92000,601.515
57.96000,584.865
58.00000,570.419
58.04000,589.707
58.08000,542.559
58.12000,615.862
58.16000,570.958
58.20000,624.000
58.24000,633.823
58.28000,575.227
58.32000,611.813
58.36000,589.936
58.40000,595.215
58.44000,593.344
58.48000,594.112
58.52000,557.236
58.56000,561.112
58.60000,579.526
58.64000,593.126
58.68000,561.695
58.72000,553.959
58.76000,572.260
58.80000,591.836
58.84000,631.017
58.88000,620.077
58.92000,598.064
58.96000,534.500
59.00000,577.808
59.04000,590.212
59.08000,531.855
59.12000,519.558
59.16000,559.348
59.20000,586.326
59.24000,536.509
59.28000,587.657
59.32000,554.433
59.36000,551.626
59.40000,539.699
59.44000,560.176
59.48000,540.070
59.52000,559.590
59.56000,530.890
59.60000,561.606
59.64000,589.729
59.68000,590.804
59.72000,563.803
59.76000,554.767
59.80000,520.311
59.84000,580.776
59.88000,556.419
59.92000,522.697
59.96000,591.643
60.00000,543.617
60.04000,572.744
60.08000,536.045
60.12000,560.331
60.16000,531.596
60.20000,545.985
60.24000,549.749
60.28000,598.509
60.32000,606.833
60.36000,496.770
60.40000,516.780
60.44000,543.362
60.48000,556.246
60.52000,526.633
60.56000,532.827
60.60000,554.466
60.64000,514.858
60.68000,570.960
60.72000,548.948
60.76000,496.729
60.80000,516.900
60.84000,531.299
60.88000,558.301
60.92000,550.987
60.96000,544.079
61.00000,551.262
61.04000,564.576
61.08000,507.284
61.12000,530.805
61.16000,502.430
61.20000,540.127
61.24000,531.324
61.28000,512.265
61.32000,535.572
61.36000,538.527
61.40000,549.684
61.44000,547.626
61.48000,531.967
61.52000,555.757
61.56000,526.483
61.60000,531.259
61.64000,560.929
61.68000,600.848
61.72000,656.420
61.76000,616.877
61.80000,593.461
61.84000,589.917
61.88000,561.785
61.92000,613.293
61.96000,596.530
62.00000,573.859
62.04000,604.174
62.08000,541.297
62.12000,585.573
62.16000,594.286
62.20000,523.331
62.24000,560.053
62.28000,500.659
62.32000,520.659
62.36000,540.861
62.40000,550.987
62.44000,472.857
62.48000,538.013
62.52000,542.237
62.56000,544.877
62.60000,482.303
62.64000,532.444
62.68000,527.203
62.72000,544.779
62.76000,532.427
62.80000,508.198
62.84000,522.081
62.88000,501.119
62.92000,553.459
62.96000,512.950
63.00000,539.681
63.04000,519.094
63.08000,528.118
63.12000,521.662
63.16000,540.211
63.20000,527.149
63.24000,540.943
63.28000,537.555
63.32000,481.497
63.36000,498.046
63.40000,512.215
63.44000,577.213
63.48000,523.658
63.52000,503.061
63.56000,556.648
63.60000,530.627
63.64000,508.120
63.68000,515.834
63.72000,550.099
63.76000,536.416
63.80000,565.337
63.84000,513.259
63.88000,555.377
63.92000,542.499
63.96000,526.317
64.00000,542.355
64.04000,606.550
64.08000,536.887
64.12000,511.742
64.16000,545.860
64.20000,506.484
64.24000,532.846
64.28000,523.384
64.32000,566.514
64.36000,571.046
64.40000,533.636
64.44000,558.146
64.48000,524.357
64.52000,546.101
64.56000,543.204
64.60000,534.317
64.64000,558.028
64.68000,551.268
64.72000,548.261
64.76000,586.931
64.80000,574.340
64.84000,603.733
64.88000,563.211
64.92000,582.835
64.96000,615.850
65.00000,535.571
65.04000,586.926
65.08000,589.515
65.12000,601.621
65.16000,617.454
65.20000,606.822
65.24000,612.006
65.28000,587.858
65.32000,602.130
65.36000,590.989
65.40000,639.250
65.44000,623.803
65.48000,592.199
65.52000,618.992
65.56000,626.823
65.60000,676.277
65.64000,633.875
65.68000,645.505
65.72000,643.554
65.76000,651.567
65.80000,618.179
65.84000,684.487
65.88000,689.199
65.92000,711.488
65.96000,733.328
66.00000,749.373
66.04000,697.410
66.08000,718.568
66.12000,767.035
66.16000,738.702
66.20000,706.350
66.24000,705.033
66.28000,737.589
66.32000,772.257
66.36000,791.861
66.40000,801.484
66.44000,781.366
66.48000,792.200
66.52000,856.552
66.56000,852.934
66.60000,819.927
66.64000,849.937
66.68000,864.777
66.72000,850.054
66.76000,926.266
66.80000,895.103
66.84000,937.236
66.88000,919.133
66.92000,941.108
66.96000,950.787
67.00000,1031.787
67.04000,1012.266
67.08000,989.588
67.12000,1082.196
67.16000,1028.376
67.20000,1071.372
67.24000,1080.409
67.28000,1108.936
67.32000,1203.898
67.36000,1162.631
67.40000,1195.590
67.44000,1243.571
67.48000,1247.157
67.52000,1257.854
67.56000,1314.937
67.60000,1285.331
67.64000,1358.489
67.68000,1339.626
67.72000,1384.495
67.76000,1465.010
67.80000,1535.144
67.84000,1536.791
67.88000,1573.066
67.92000,1586.454
67.96000,1699.218
68.00000,1731.091
68.04000,1742.392
68.08000,1733.319
68.12000,1892.949
68.16000,1886.675
68.20000,1991.315
68.24000,1982.506
68.28000,2094.658
68.32000,2084.688
68.36000,2272.645
68.40000,2325.257
68.44000,2357.850
68.48000,2519.519
68.52000,2520.914
68.56000,2633.096
68.60000,2821.096
68.64000,3036.533
68.68000,3201.228
68.72000,3667.556
68.76000,4460.818
68.80000,5847.288
68.84000,6983.275
68.88000,7514.222
68.92000,7523.358
68.96000,8141.799
69.00000,10132.120
69.04000,14953.222
69.08000,28189.449
69.12000,109783.680
69.16000,418949.625
69.20000,488372.688
69.24000,182363.000
69.28000,51095.106
69.32000,80241.156
69.36000,228148.516
69.40000,246160.078
69.44000,90238.539
69.48000,23895.908
69.52000,12516.502
69.56000,8791.333
69.60000,7073.485
69.64000,5990.263
69.68000,5117.521
69.72000,4525.081
69.76000,4054.002
69.80000,3716.621
69.84000,3372.167
69.88000,3229.427
69.92000,3062.168
69.96000,2891.529
70.00000,2699.363
70.04000,2555.476
70.08000,2451.828
70.12000,2351.332
70.16000,2206.185
70.20000,2221.325
70.24000,2153.281
70.28000,2026.697
70.32000,2007.587
70.36000,1906.633
70.40000,1806.023
70.44000,1814.776
70.48000,1695.632
70.52000,1698.235
70.56000,1584.473
70.60000,1546.665
70.64000,1548.018
70.68000,1535.955
70.72000,1489.923
70.76000,1404.742
70.80000,1347.402
70.84000,1329.431
70.88000,1347.284
70.92000,1287.148
70.96000,1263.964
71.00000,1223.893
71.04000,1270.267
71.08000,1171.007
71.12000,1106.541
71.16000,1144.752
71.20000,1064.569
71.24000,1088.217
71.28000,1034.005
71.32000,1013.002
71.36000,1008.442
71.40000,941.843
71.44000,905.894
71.48000,946.354
71.52000,896.999
71.56000,909.163
71.60000,861.154
71.64000,851.524
71.68000,810.912
71.72000,792.669
71.76000,790.968
71.80000,782.378
71.84000,793.241
71.88000,859.238
71.92000,748.136
71.96000,752.779
72.00000,697.743
72.04000,703.494
72.08000,685.980
72.12000,677.066
72.16000,654.888
72.20000,648.316
72.24000,653.005
72.28000,634.398
72.32000,628.357
72.36000,636.086
72.40000,635.156
72.44000,579.725
72.48000,602.162
72.52000,640.025
72.56000,585.617
72.60000,588.023
72.64000,598.609
72.68000,545.853
72.72000,588.466
72.76000,559.849
72.80000,526.165
72.84000,548.698
72.88000,556.256
72.92000,536.810
72.96000,487.769
73.00000,525.689
73.04000,496.073
73.08000,520.952
73.12000,516.492
73.16000,504.738
73.20000,504.216
73.24000,497.415
73.28000,528.335
73.32000,525.511
73.36000,475.123
73.40000,491.992
73.44000,448.377
73.48000,487.017
73.52000,495.699
73.56000,440.392
73.60000,449.300
73.64000,455.087
73.68000,432.965
73.72000,441.281
73.76000,444.798
73.80000,420.107
73.84000,436.896
73.88000,465.160
73.92000,429.706
73.96000,433.335
74.00000,434.030
74.04000,418.899
74.08000,449.718
74.12000,419.532
74.16000,395.524
74.20000,428.174
74.24000,413.183
74.28000,418.264
74.32000,377.848
74.36000,422.406
74.40000,379.608
74.44000,413.246
74.48000,413.594
74.52000,387.627
74.56000,394.199
74.60000,410.896
74.64000,391.344
74.68000,369.180
74.72000,393.543
74.76000,401.380
74.80000,343.559
74.84000,374.291
74.88000,376.408
74.92000,374.912
74.96000,388.613
75.00000,384.710
75.04000,371.127
75.08000,371.423
75.12000,415.646
75.16000,362.876
75.20000,386.474
75.24000,369.881
75.28000,387.171
75.32000,362.042
75.36000,351.265
75.40000,381.062
75.44000,382.179
75.48000,359.036
75.52000,377.035
75.56000,396.447
75.60000,378.591
75.64000,345.958
75.68000,377.115
75.72000,367.230
75.76000,367.233
75.80000,359.520
75.84000,387.197
75.88000,337.925
75.92000,337.398
75.96000,316.453
76.00000,318.859
76.04000,338.934
76.08000,338.637
76.12000,342.836
76.16000,363.368
76.20000,329.794
76.24000,344.822
76.28000,335.644
76.32000,346.145
76.36000,326.283
76.40000,332.731
76.44000,326.242
76.48000,340.474
76.52000,345.793
76.56000,299.505
76.60000,322.899
76.64000,329.468
76.68000,313.470
76.72000,316.797
76.76000,353.441
76.80000,322.501
76.84000,332.296
76.88000,312.675
76.92000,301.339
76.96000,315.279
77.00000,340.468
77.04000,315.066
77.08000,307.849
77.12000,308.611
77.16000,340.325
77.20000,344.592
77.24000,362.197
77.28000,307.977
77.32000,321.556
77.36000,356.689
77.40000,367.151
77.44000,308.938
77.48000,317.186
77.52000,358.144
77.56000,317.650
77.60000,341.006
77.64000,349.092
77.68000,322.760
77.72000,377.624
77.76000,363.718
77.80000,384.282
77.84000,369.054
77.88000,402.309
77.92000,411.025
77.96000,429.113
78.00000,435.962
78.04000,419.540
78.08000,464.243
78.12000,423.895
78.16000,416.842
78.20000,398.990
78.24000,377.162
78.28000,394.654
78.32000,383.871
78.36000,390.137
78.40000,389.539
78.44000,321.041
78.48000,317.075
78.52000,309.007
78.56000,327.579
78.60000,317.176
78.64000,346.832
78.68000,308.478
78.72000,296.840
78.76000,307.193
78.80000,297.943
78.84000,301.740
78.88000,344.143
78.92000,314.224
78.96000,306.501
79.00000,295.833
79.04000,305.723
79.08000,291.347
79.12000,314.904
79.16000,277.873
79.20000,288.501
79.24000,294.413
79.28000,276.083
79.32000,281.593
79.36000,261.356
79.40000,311.426
79.44000,283.988
79.48000,293.902
79.52000,285.031
79.56000,294.814
79.60000,306.484
79.64000,319.888
79.68000,289.153
79.72000,307.052
79.76000,299.791
79.80000,309.907
79.84000,300.782
79.88000,302.810
79.92000,290.437
79.96000,284.906
80.00000,303.993
